Wave (nm),StarBrightXLT
401,0.72
412,0.77
431,0.83
452,0.86
469,0.87
491,0.89
511,0.90
522,0.90
536,0.89
545,0.89
556,0.90
569,0.89
580,0.89
589,0.89
597,0.88
617,0.88
646,0.86
673,0.84
683,0.84
731,0.79
736,0.78
749,0.77
